Frequenz [Hz];A [V];B [mv];Phasenverschiebung [ï¿½s]
100;1,103;15,46;1462
200;1,073;16,42;535,2
300;1,086;18,32;584
400;1,015;41,93;657,2
500;1,180;42,52;1000
700;0,973;25,25;535,2
850;1,005;21,27;443,5
1000;0,973;15,79;282,4
1200;1,005;17,34;196,9
1500;1,008;30,60;172,2
1700;0,979;18,32;126,4
2000;0,952;16,42;87,13
3000;0,977;17,03;15,06
4000;1,022;11,73;16,97
5000;1,039;17,71;66,92
6000;1,057;12,51;25,36
10000;1,161;20,65;5,91
